Frequency Band (GHz),Solar Radiation Intensity (dB)
10.0,20
10.5,22
11.0,25
11.5,24
12.0,27
12.5,26
13.0,28
13.5,29
14.0,30
14.5,31
15.0,32
15.5,33
16.0,34
16.5,35
17.0,34
17.5,33
18.0,32
18.5,31
19.0,30
19.5,29
20.0,28
20.5,27
21.0,26
21.5,25
22.0,24
22.5,23
23.0,22
23.5,21
24.0,20
24.5,19
25.0,18
25.5,17
26.0,16
26.5,15
27.0,14
27.5,13
28.0,12
28.5,11
29.0,10
29.5,9
30.0,8
30.5,7
31.0,6
31.5,5
32.0,4
32.5,3
33.0,2
33.5,1
34.0,0
x